Standard_Name		
GOR132-G		
Density(mg/cm^3)	Mass(mg)	Sample_thickness(micron)
2200	0.0	100
Number of elements		
72		
Z	Cert conc(ppm)	Standard_error(ppm)
1	29.1	0.0	
3	28.6	1.8
4	0.08	0.0
5	17.2	2.6
6	15829.4	0.0
8	440000	0.0
9	22	0.0
11	6157.5	400
12	135081	2000
13	58218.7	2000
14	212688	4000
15	157.1	120
16	1.8	0.0
17	6.2	0.0
19	255.7	34
20	60391.8	1200
21	36.5	1.2
22	1834.0	130
23	214	17
24	2528	183
25	1192.7	70
26	78508.2	1000
27	92.7	5.7
28	1187	58
29	205	21
30	76.8	12.5
31	10.4	0.9
32	0.68	0.0
33	0.16	0.0
34	0.03	0.03
35	0.2	0.2
37	2.1	0.1
38	15.3	0.6
39	12.9	0.5
40	9.9	0.3
41	0.073	0.013
42	30.5	2.6
47	0.04	0.0
48	0.8	0.0
49	0.09	0.0
50	0.34	0.09
51	0.06	0.04
55	7.45	0.63
56	0.815	0.062
57	0.0842	0.0029
58	0.393	0.018
59	0.089	0.004
60	0.689	0.017
62	0.508	0.015
63	0.255	0.007
64	1.19	0.04
65	0.269	0.011
66	2.15	0.06
67	0.507	0.019
68	1.56	0.05
69	0.234	0.009
70	1.61	0.04
71	0.237	0.009
72	0.357	0.018
73	0.035	0.031
74	25.4	3.4
75	0.0009	0.0009
76	0.2	0.2
77	1.28	1.28
78	13	11.0
79	0.11	0.09
80	0.4	0.0
81	0.001	0.0
82	19.3	1.7
83	0.007	0.003
90	0.009	0.003
92	0.048	0.005
		
Notes		
Matrix composition not available		
Values copied from Preferred Value list of DOI:10.1029/2005GC001060		
Reference values given for Li, Na, Mg, Al, Si, K, Ca, Sc, Ti, V, Cr, Mn, Fe, Co, Ni, Cu, Zn, Ga, As, Se, Br, Rb, Sr, Y, Zr, Nb, Mo, Sn, Sb, Cs, Ba, La, Ce, Pr, Nd, Sm, Eu, Gd, Tb, Dy, Ho, Er, Tm, Yb, Lu, Hf, Ta, W, Pb, Th, U		
Information values given for H, Be, B, C, O, F, S, Cl, Ge, Se, Br, Pd, Ag, Cd, In, Re, Os, Ir, Pt, Au, Hg, Tl, Bi		
