Standard_Name							
NIST 1412							
Density(mg/cm^3)	Mass(mg)	Sample_thickness(micron)	
2825.07 	9470.0	3290.0					
Number of elements							
15							
Z	Cert conc(ppm)	Standard_error(ppm)					
3	20902.70107	0.0					
5	14069.09895	1700.0					
8	965028.2	0.0					
11	34793.43003	700.0					
12	28285.89715	0.0					
13	39800.44135	2400.0					
14	198103.4352	1800.0					
19	34368.81628	1000.0					
20	32376.1836	1000.0					
26	216.82587	0.0					
30	35991.2989	1200.0					
38	38474.70059	900.0					
48	38342.35469	800.0					
56	41827.44116	1600.0					
82	40845.91983	1700.0					
							
							
							
							
							
							
							
							
							
							
							
							
							
							
							
